#####################################################################################
### CosmicWatch: The Desktop Muon Detector
### Questions? saxani@mit.edu
### Comp_date Comp_time Event Ardn_time[ms] ADC[0-1023] SiPM[mV] Deadtime[ms] Temp[C]
#####################################################################################
Device ID: ÿÿÿÿÿÿÿÿÿÿÿÿÿÿÿÿÿÿÿÿÿÿÿÿÿÿÿÿÿÿÿÿÿÿÿÿÿÿÿ
1 1996 184 31.36 0 11.88
2 2430 44 14.51 13 11.88
3 2874 385 80.11 29 11.88
4 3564 31 12.01 46 11.88
5 3743 147 26.19 63 11.88
6 3833 216 36.85 82 11.88
7 4310 238 40.82 99 11.88
8 4833 220 37.58 116 11.88
9 6357 41 13.92 133 11.88
10 6921 159 27.66 150 11.88
11 9848 145 25.96 167 11.88
12 10764 391 82.35 184 11.88
13 15523 295 51.75 201 11.88
14 19217 135 24.92 218 11.88
15 23197 371 73.82 235 11.88
16 23863 127 24.18 252 11.88
17 24263 167 28.76 269 11.88
18 25251 248 42.69 286 11.88
19 25437 192 32.67 303 11.88
20 28163 275 47.73 320 11.88
21 30353 62 17.75 337 11.88
22 31767 145 25.96 354 11.88
23 32630 144 25.85 371 11.88
24 32775 248 42.69 391 11.88
25 33381 255 43.96 408 11.88
26 35127 259 44.69 425 11.88
27 36459 524 150.73 442 11.88
28 36677 284 49.41 459 11.88
29 36843 455 117.03 476 11.88
30 39511 51 15.86 493 11.88
31 41989 188 32.01 510 11.88
32 44476 319 57.64 527 11.88
33 45221 99 21.91 544 11.88
34 45783 127 24.18 561 11.88
35 51162 240 41.21 578 11.88
36 53077 175 29.94 595 11.88
37 54722 207 35.26 612 11.88
38 58262 76 19.69 629 11.88
39 59485 31 12.01 646 11.88
40 61284 62 17.75 663 11.88
41 61508 32 12.19 683 11.88
42 61543 70 18.93 699 11.88
43 63548 280 48.67 716 11.88
44 63906 99 21.91 733 11.88
45 64847 147 26.19 750 11.88
46 67777 339 62.98 767 11.88
47 69760 225 38.48 784 11.88
48 70356 295 51.75 801 11.88
49 70893 633 241.23 818 11.88
50 73061 195 33.17 835 11.88
51 73358 304 53.73 852 11.88
52 75392 270 46.71 869 11.88
53 76572 159 27.66 886 11.88
54 77020 275 47.73 903 11.88
55 78556 248 42.69 920 11.88
56 78686 108 22.63 937 11.88
57 79943 287 50.23 954 11.88
58 80320 318 57.28 973 11.88
59 81003 268 46.26 990 11.88
60 81922 327 59.28 1007 11.88
61 83942 159 27.66 1024 11.88
62 85334 224 38.29 1041 11.88
63 86043 292 51.11 1058 11.88
64 88147 96 21.67 1075 11.88
65 88709 339 62.98 1092 11.88
66 89471 184 31.36 1109 11.88
67 89695 327 59.28 1126 11.88
68 90414 31 12.01 1143 11.88
69 92211 255 43.96 1160 11.88
70 92414 56 16.76 1177 11.88
71 92712 435 104.92 1194 11.88
72 93864 79 20.03 1211 11.88
73 93935 44 14.51 1228 11.88
74 94779 49 15.48 1245 11.88
75 96554 327 59.28 1264 11.88
76 96727 350 66.46 1281 11.88
77 97364 31 12.01 1298 11.88
78 97986 220 37.58 1315 11.88
79 98891 31 12.01 1332 11.88
80 103471 76 19.69 1349 11.88
81 103510 399 87.30 1366 11.88
82 103724 103 22.23 1383 11.88
83 104302 51 15.86 1400 11.88
84 105062 295 51.75 1417 11.88
85 105187 211 35.96 1434 11.88
86 105799 348 65.64 1451 11.88
87 107107 231 39.55 1468 11.88
88 108190 39 13.53 1485 11.88
89 110686 127 24.18 1502 11.88
90 115458 48 15.29 1519 11.88
91 115767 156 27.28 1539 11.88
92 116735 44 14.51 1556 11.88
93 117453 188 32.01 1573 11.88
94 118086 185 31.51 1590 11.88
95 118105 167 28.76 1607 11.88
96 118516 300 52.79 1624 11.88
97 119285 398 85.63 1641 11.88
98 120070 384 80.08 1658 11.88
99 121681 268 46.26 1675 11.88
100 123549 83 20.46 1692 11.88
101 124199 51 15.86 1709 11.88
102 124806 307 54.48 1726 11.88
103 128067 120 23.58 1743 11.88
104 128630 216 36.85 1760 11.88
105 128841 291 50.97 1777 11.88
106 132076 92 21.32 1794 11.88
107 133640 31 12.01 1813 11.88
108 134610 319 57.64 1830 11.88
109 135814 92 21.32 1847 11.88
110 138236 161 27.93 1864 11.88
111 140177 96 21.67 1881 11.88
112 140294 432 101.61 1898 11.88
113 141869 159 27.66 1915 11.88
114 143893 305 53.88 1932 11.88
115 144389 115 23.18 1949 11.88
116 145026 199 33.86 1966 11.88
117 145170 344 64.67 1983 11.88
118 147217 271 46.93 2000 11.88
119 147819 62 17.75 2017 11.88
120 147863 44 14.51 2034 11.88
121 149380 563 181.65 2051 11.88
122 149655 236 40.44 2068 11.88
123 150708 44 14.51 2087 11.88
124 150865 241 41.39 2104 11.88
125 152293 46 14.91 2121 11.88
126 152446 102 22.15 2138 11.88
127 154268 376 76.43 2155 11.88
128 155454 327 59.28 2172 11.88
129 157553 323 58.48 2189 11.88
130 158831 140 25.42 2206 11.88
131 159917 335 61.77 2223 11.88
132 161776 48 15.29 2240 11.88
133 163708 433 104.37 2257 11.88
134 165347 76 19.69 2274 11.88
135 168413 131 24.54 2291 11.88
136 169945 243 41.74 2308 11.88
137 171512 140 25.42 2325 11.88
138 173176 121 23.66 2345 11.88
139 174720 408 90.57 2362 11.88
140 176334 190 32.33 2379 11.88
141 179017 184 31.36 2396 11.88
142 179268 430 101.41 2413 11.88
143 179522 35 12.75 2430 11.88
144 179710 108 22.63 2447 11.88
145 180441 63 17.91 2464 11.88
146 180977 39 13.53 2481 11.88
147 181670 295 51.75 2498 11.88
148 182221 185 31.51 2515 11.88
149 184332 56 16.76 2532 11.88
150 185098 35 12.75 2549 11.88
151 185671 199 33.86 2566 11.88
152 186108 204 34.73 2583 11.88
153 186374 60 17.43 2600 11.88
154 187345 524 150.73 2620 11.88
155 187964 316 56.81 2637 11.88
156 190111 179 30.55 2654 11.88
157 191669 147 26.19 2671 11.88
158 194029 572 183.73 2688 11.88
159 198597 172 29.49 2705 11.88
160 198743 344 64.67 2722 11.88
161 198981 48 15.29 2739 11.88
162 199483 440 109.25 2756 11.88
163 203866 31 12.01 2773 11.88
164 205888 120 23.58 2790 11.88
165 209707 83 20.46 2807 11.88
166 210727 39 13.53 2824 11.88
167 211115 300 52.79 2841 11.88
168 212041 108 22.63 2858 11.88
169 213083 159 27.66 2875 11.88
170 214019 399 87.30 2895 11.88
171 214456 39 13.53 2912 11.88
172 214720 39 13.53 2929 11.88
173 215177 271 46.93 2946 11.88
174 216995 103 22.23 2963 11.88
175 218756 99 21.91 2980 11.88
176 219694 31 12.01 2997 11.88
177 219792 224 38.29 3014 11.88
178 223044 177 30.25 3031 11.88
179 227513 67 18.51 3048 11.88
180 228381 167 28.76 3065 11.88
181 230208 54 16.41 3082 11.88
182 232467 83 20.46 3099 11.88
183 233510 60 17.43 3116 11.88
184 233633 287 50.23 3133 11.88
185 234615 374 75.61 3153 11.88
186 234945 435 104.92 3170 11.88
187 235871 255 43.96 3187 11.88
188 238241 188 32.01 3204 11.88
189 240284 48 15.29 3221 11.88
190 241861 33 12.37 3238 11.88
191 243319 39 13.53 3255 11.88
192 243916 67 18.51 3272 11.88
193 245200 275 47.73 3289 11.88
194 245559 305 53.88 3306 11.88
195 245975 143 25.74 3323 11.88
196 246091 166 28.62 3340 11.88
197 246791 39 13.53 3357 11.88
198 247327 280 48.67 3374 11.88
199 247676 467 121.56 3391 11.88
200 249466 198 33.69 3408 11.88
201 249661 39 13.53 3428 11.88
202 250158 56 16.76 3445 11.88
203 251024 551 164.56 3462 11.88
204 251555 415 95.00 3479 11.88
205 251690 71 19.06 3496 11.88
206 254842 220 37.58 3513 11.88
207 255114 359 69.86 3530 11.88
208 256948 32 12.19 3547 11.88
209 257895 344 64.67 3563 11.88
210 258802 472 125.87 3580 11.88
211 258911 227 38.83 3597 11.88
212 258995 415 95.00 3614 11.88
213 259151 236 40.44 3631 11.88
214 259230 44 14.51 3648 11.88
215 259792 108 22.63 3665 11.88
216 260837 385 80.11 3682 11.88
217 261894 222 37.96 3696 11.88
218 262399 199 33.86 3713 11.88
219 270721 110 22.78 3730 11.88
220 272553 209 35.61 3747 11.88
221 274583 252 43.42 3764 11.88
222 276227 46 14.91 3781 11.88
223 277374 271 46.93 3798 11.88
224 277536 102 22.15 3815 11.88
225 277685 225 38.48 3832 11.88
226 280271 280 48.67 3849 11.88
227 280546 248 42.69 3866 11.88
228 281578 115 23.18 3883 11.88
229 281867 192 32.67 3900 11.88
230 282846 240 41.21 3917 11.88
231 284350 44 14.51 3934 11.88
232 284938 284 49.41 3954 11.88
233 285507 430 101.41 3971 11.88
234 285784 252 43.42 3988 11.88
235 287326 56 16.76 4005 11.88
236 290611 92 21.32 4022 11.88
237 290634 435 104.92 4039 11.88
238 292416 302 53.30 4056 11.88
239 292680 307 54.48 4073 11.88
240 296397 384 80.08 4090 11.88
241 298662 96 21.67 4107 11.88
242 299530 99 21.91 4124 11.88
243 300093 231 39.55 4141 11.88
244 300922 113 23.02 4158 11.88
245 303178 211 35.96 4184 11.88
246 303596 31 12.01 4201 11.88
247 305682 207 35.26 4218 11.88
248 306177 227 38.83 4245 11.88
249 306620 79 20.03 4262 11.88
250 307737 248 42.69 4279 11.88
251 307878 220 37.58 4296 11.88
252 313621 63 17.91 4313 11.88
253 314020 63 17.91 4330 11.88
254 314447 46 14.91 4347 11.88
255 318495 398 85.63 4364 11.88
256 319152 275 47.73 4381 11.88
257 321338 83 20.46 4398 11.88
258 323266 31 12.01 4415 11.88
259 323610 167 28.76 4432 11.88
260 324705 192 32.67 4449 11.88
261 325086 248 42.69 4466 11.88
262 325611 249 42.85 4483 11.88
263 326379 30 11.83 4503 11.88
264 327386 332 61.17 4520 11.88
265 327578 428 101.58 4537 11.88
266 327970 88 20.96 4554 11.88
267 328374 105 22.39 4571 11.88
268 328398 327 59.28 4588 11.88
269 330408 255 43.96 4605 11.88
270 332501 428 101.58 4622 11.88
271 334504 414 93.93 4639 11.88
272 334805 472 125.87 4656 11.88
273 335918 408 90.57 4673 11.88
274 336229 323 58.48 4690 11.88
275 336645 240 41.21 4707 11.88
276 338041 108 22.63 4724 11.88
277 338405 147 26.19 4741 11.88
278 338686 103 22.23 4758 11.88
279 338826 280 48.67 4778 11.88
280 340102 60 17.43 4795 11.88
281 340475 319 57.64 4812 11.88
282 340680 131 24.54 4829 11.88
283 341504 207 35.26 4846 11.88
284 341936 71 19.06 4863 11.88
285 342306 30 11.83 4880 11.88
286 342800 270 46.71 4897 11.88
287 343365 39 13.53 4914 11.88
288 343674 195 33.17 4931 11.88
289 347278 275 47.73 4948 11.88
290 347886 179 30.55 4965 11.88
291 347961 199 33.86 4982 11.88
292 348527 31 12.01 4999 11.88
293 349493 207 35.26 5016 11.88
294 352516 302 53.30 5033 11.88
295 354334 176 30.09 5053 11.88
296 354875 143 25.74 5070 11.88
297 356515 83 20.46 5087 11.88
298 363778 209 35.61 5104 11.88
299 364113 89 21.05 5121 11.88
300 364788 145 25.96 5138 11.88
301 365617 39 13.53 5155 11.88
302 368084 102 22.15 5172 11.88
303 368347 39 13.53 5189 11.88
304 369478 51 15.86 5206 11.88
305 370568 35 12.75 5223 11.88
306 373850 39 13.53 5240 11.88
307 377438 159 27.66 5257 11.88
308 377575 35 12.75 5274 11.88
309 378344 387 81.05 5291 11.88
310 378734 161 27.93 5311 11.88
311 381459 512 144.44 5328 11.88
312 381830 231 39.55 5344 11.88
313 382278 273 47.25 5361 11.88
314 385023 108 22.63 5378 11.88
315 385085 39 13.53 5395 11.88
316 386649 289 50.47 5412 11.98
317 387161 31 12.01 5429 11.88
318 387531 380 78.12 5446 11.88
319 387930 284 49.41 5463 11.98
320 388419 248 42.69 5480 11.98
321 391275 204 34.73 5497 11.88
322 391441 240 41.21 5514 11.88
323 391944 231 39.55 5531 11.98
324 394826 83 20.46 5548 11.88
325 396131 326 59.13 5565 11.98
326 397091 167 28.76 5585 11.88
327 398809 240 41.21 5602 11.88
328 401122 280 48.67 5619 11.98
329 401460 204 34.73 5636 11.88
330 403229 248 42.69 5653 11.98
331 409400 79 20.03 5670 11.98
332 409881 225 38.48 5687 11.98
333 410947 174 29.79 5704 11.98
334 411058 255 43.96 5721 11.98
335 414596 224 38.29 5738 11.98
336 415354 135 24.92 5755 11.98
337 415417 71 19.06 5772 11.98
338 416858 56 16.76 5789 12.20
339 416925 275 47.73 5806 11.98
340 417144 409 91.12 5823 11.98
341 420101 147 26.19 5843 12.09
342 420848 118 23.42 5860 12.20
343 421019 227 38.83 5877 11.98
344 421969 287 50.23 5894 12.20
345 423655 280 48.67 5911 12.09
346 424301 423 97.36 5928 12.09
347 424581 259 44.69 5945 12.09
348 429251 62 17.75 5962 12.20
349 430144 399 87.30 5979 12.20
350 433605 209 35.61 5996 11.98
351 435490 188 32.01 6013 11.98
352 440003 188 32.01 6030 11.98
353 440938 48 15.29 6047 11.98
354 441057 206 35.07 6064 11.88
355 441312 121 23.66 6081 11.88
356 447470 159 27.66 6098 12.09
357 449173 423 97.36 6118 11.98
358 449432 67 18.51 6135 12.20
359 450815 463 119.23 6152 12.09
360 451548 568 189.84 6169 12.09
361 453663 76 19.69 6186 12.09
362 456762 62 17.75 6203 11.98
363 456918 259 44.69 6220 12.09
364 457323 414 93.93 6237 12.09
365 459513 220 37.58 6254 12.20
366 460827 289 50.47 6271 12.20
367 462107 319 57.64 6288 12.20
368 464061 152 26.78 6305 11.98
369 466298 67 18.51 6322 11.98
370 466928 348 65.64 6339 11.98
371 467833 56 16.76 6356 11.98
372 468338 48 15.29 6373 11.98
373 470173 35 12.75 6392 12.09
374 470287 387 81.05 6409 11.98
375 470759 39 13.53 6426 11.98
376 471007 124 23.92 6443 12.09
377 472751 112 22.94 6460 11.98
378 473182 412 92.93 6477 11.98
379 473960 216 36.85 6494 11.98
380 474627 318 57.28 6511 11.98
381 475092 152 26.78 6528 11.98
382 475507 56 16.76 6545 11.98
383 476559 359 69.86 6562 11.98
384 476638 39 13.53 6579 11.98
385 480299 143 25.74 6596 11.98
386 480567 220 37.58 6613 12.20
387 481088 415 95.00 6630 11.98
388 483564 321 58.01 6650 11.98
389 484188 83 20.46 6667 11.98
390 486339 294 51.51 6684 11.98
391 489793 238 40.82 6701 11.98
392 492591 65 18.22 6718 11.98
393 494511 432 101.61 6735 11.98
394 495889 216 36.85 6752 11.98
395 498421 319 57.64 6769 12.09
396 498713 176 30.09 6786 11.98
397 500935 79 20.03 6803 12.09
398 501815 284 49.41 6820 11.98
399 501921 79 20.03 6837 12.09
400 503148 79 20.03 6854 12.09
401 505465 305 53.88 6871 12.09
